ACACIAS Wenner_1
4.50
11
1
Type of measurement (0=app.resistivity,1=resistance)
1
190
2
11
Chargeability
mV/V
2 0.01 0.02 0.02 0.80 0.50
4 20.25 0.00 33.75 0.00 24.75 0.00 29.25 0.00 34.9668 16.0165 15.2059
4 24.75 0.00 38.25 0.00 29.25 0.00 33.75 0.00 35.4296 15.6178 14.8142
4 20.25 0.00 47.25 0.00 29.25 0.00 38.25 0.00 11.4752 20.3055 19.2861
4 29.25 0.00 42.75 0.00 33.75 0.00 38.25 0.00 36.9389 15.5283 14.7314
4 24.75 0.00 51.75 0.00 33.75 0.00 42.75 0.00 11.9803 20.7575 19.692
4 33.75 0.00 47.25 0.00 38.25 0.00 42.75 0.00 37.782 15.8484 15.0485
4 20.25 0.00 60.75 0.00 33.75 0.00 47.25 0.00 3.93789 23.1465 21.9906
4 29.25 0.00 56.25 0.00 38.25 0.00 47.25 0.00 11.5351 20.6076 19.5674
4 38.25 0.00 51.75 0.00 42.75 0.00 47.25 0.00 35.9561 15.1516 14.3934
4 24.75 0.00 65.25 0.00 38.25 0.00 51.75 0.00 4.2012 22.6571 21.6019
4 20.25 0.00 74.25 0.00 38.25 0.00 56.25 0.00 1.60449 22.6589 21.718
4 33.75 0.00 60.75 0.00 42.75 0.00 51.75 0.00 11.4625 19.8867 18.9262
4 42.75 0.00 56.25 0.00 47.25 0.00 51.75 0.00 37.0118 15.4731 14.6619
4 29.25 0.00 69.75 0.00 42.75 0.00 56.25 0.00 4.26435 22.3927 21.1528
4 38.25 0.00 65.25 0.00 47.25 0.00 56.25 0.00 11.5681 19.5306 18.5655
4 24.75 0.00 78.75 0.00 42.75 0.00 60.75 0.00 1.59604 22.5003 21.3815
4 33.75 0.00 74.25 0.00 47.25 0.00 60.75 0.00 4.16985 21.4815 20.3614
4 47.25 0.00 60.75 0.00 51.75 0.00 56.25 0.00 33.7741 14.5989 13.8487
4 29.25 0.00 83.25 0.00 47.25 0.00 65.25 0.00 1.72162 22.3091 21.3114
4 42.75 0.00 69.75 0.00 51.75 0.00 60.75 0.00 11.6182 19.5468 18.5593
4 38.25 0.00 78.75 0.00 51.75 0.00 65.25 0.00 4.04787 21.6595 20.6735
4 51.75 0.00 65.25 0.00 56.25 0.00 60.75 0.00 31.766 14.7271 13.9883
4 33.75 0.00 87.75 0.00 51.75 0.00 69.75 0.00 1.64097 22.0049 21.0715
4 20.25 0.00 101.25 0.00 47.25 0.00 74.25 0.00 0.380442 18.909 17.9587
4 47.25 0.00 74.25 0.00 56.25 0.00 65.25 0.00 10.8648 19.4357 18.4442
4 42.75 0.00 83.25 0.00 56.25 0.00 69.75 0.00 4.14397 22.0082 21.0813
4 56.25 0.00 69.75 0.00 60.75 0.00 65.25 0.00 31.8406 14.6876 13.9041
4 51.75 0.00 78.75 0.00 60.75 0.00 69.75 0.00 10.7241 19.0687 18.1244
4 24.75 0.00 105.75 0.00 51.75 0.00 78.75 0.00 0.39075 22.3164 20.7267
4 38.25 0.00 92.25 0.00 56.25 0.00 74.25 0.00 1.7415 23.1004 21.973
4 60.75 0.00 74.25 0.00 65.25 0.00 69.75 0.00 30.3562 13.7059 13.0201
4 47.25 0.00 87.75 0.00 60.75 0.00 74.25 0.00 4.21988 21.7092 20.5891
4 56.25 0.00 83.25 0.00 65.25 0.00 74.25 0.00 11.5763 18.6265 17.6785
4 42.75 0.00 96.75 0.00 60.75 0.00 78.75 0.00 1.83283 23.1278 22.1381
4 29.25 0.00 110.25 0.00 56.25 0.00 83.25 0.00 0.355801 20.9961 20.1975
4 65.25 0.00 78.75 0.00 69.75 0.00 74.25 0.00 33.4995 13.5429 12.8468
4 51.75 0.00 92.25 0.00 65.25 0.00 78.75 0.00 4.47013 21.1366 20.1463
4 33.75 0.00 114.75 0.00 60.75 0.00 87.75 0.00 0.351427 23.0736 20.7243
4 60.75 0.00 87.75 0.00 69.75 0.00 78.75 0.00 11.4998 17.9623 17.0495
4 20.25 0.00 128.25 0.00 56.25 0.00 92.25 0.00 0.131889 16.8901 15.0423
4 47.25 0.00 101.25 0.00 65.25 0.00 83.25 0.00 1.63893 22.5094 21.382
4 69.75 0.00 83.25 0.00 74.25 0.00 78.75 0.00 33.9008 12.6674 12.0622
4 56.25 0.00 96.75 0.00 69.75 0.00 83.25 0.00 4.22164 21.6169 20.5431
4 51.75 0.00 105.75 0.00 69.75 0.00 87.75 0.00 1.79124 22.6247 21.5049
4 24.75 0.00 132.75 0.00 60.75 0.00 96.75 0.00 0.126447 8.75065 9.03509
4 38.25 0.00 119.25 0.00 65.25 0.00 92.25 0.00 0.360836 22.7426 21.2304
4 65.25 0.00 92.25 0.00 74.25 0.00 83.25 0.00 10.4115 18.1356 17.202
4 74.25 0.00 87.75 0.00 78.75 0.00 83.25 0.00 28.0143 11.5602 10.9952
4 60.75 0.00 101.25 0.00 74.25 0.00 87.75 0.00 4.1576 21.5116 20.4509
4 42.75 0.00 123.75 0.00 69.75 0.00 96.75 0.00 0.374123 21.0026 20.7129
4 29.25 0.00 137.25 0.00 65.25 0.00 101.25 0.00 0.135276 21.5317 22.8452
4 56.25 0.00 110.25 0.00 74.25 0.00 92.25 0.00 1.71491 23.5358 22.1883
4 69.75 0.00 96.75 0.00 78.75 0.00 87.75 0.00 10.759 18.3474 17.411
4 78.75 0.00 92.25 0.00 83.25 0.00 87.75 0.00 33.2938 12.6024 11.9517
4 65.25 0.00 105.75 0.00 78.75 0.00 92.25 0.00 4.24306 22.0085 20.9418
4 20.25 0.00 155.25 0.00 65.25 0.00 110.25 0.00 0.0787625 38.1541 33.7897
4 33.75 0.00 141.75 0.00 69.75 0.00 105.75 0.00 0.138429 16.84 17.5033
4 47.25 0.00 128.25 0.00 74.25 0.00 101.25 0.00 0.376804 22.6486 19.9703
4 60.75 0.00 114.75 0.00 78.75 0.00 96.75 0.00 1.61848 22.3257 21.1752
4 74.25 0.00 101.25 0.00 83.25 0.00 92.25 0.00 12.1132 18.7441 17.769
4 69.75 0.00 110.25 0.00 83.25 0.00 96.75 0.00 4.30412 21.6649 20.7102
4 83.25 0.00 96.75 0.00 87.75 0.00 92.25 0.00 30.257 12.7688 12.1134
4 24.75 0.00 159.75 0.00 69.75 0.00 114.75 0.00 0.081614 29.7255 30.8324
4 51.75 0.00 132.75 0.00 78.75 0.00 105.75 0.00 0.366662 21.5264 20.7512
4 38.25 0.00 146.25 0.00 74.25 0.00 110.25 0.00 0.137696 16.9557 18.4041
4 65.25 0.00 119.25 0.00 83.25 0.00 101.25 0.00 1.75183 23.3562 22.2523
4 78.75 0.00 105.75 0.00 87.75 0.00 96.75 0.00 12.0225 18.3027 17.4077
4 74.25 0.00 114.75 0.00 87.75 0.00 101.25 0.00 4.3874 21.8316 20.7839
4 87.75 0.00 101.25 0.00 92.25 0.00 96.75 0.00 30.9306 13.1196 12.476
4 83.25 0.00 110.25 0.00 92.25 0.00 101.25 0.00 11.3525 18.9254 17.9723
4 29.25 0.00 164.25 0.00 74.25 0.00 119.25 0.00 0.079289 26.3297 26.1927
4 42.75 0.00 150.75 0.00 78.75 0.00 114.75 0.00 0.139308 14.3645 14.7489
4 69.75 0.00 123.75 0.00 87.75 0.00 105.75 0.00 1.68956 24.0833 22.6409
4 56.25 0.00 137.25 0.00 83.25 0.00 110.25 0.00 0.384061 20.4514 20.3084
4 92.25 0.00 105.75 0.00 96.75 0.00 101.25 0.00 36.7828 14.9221 14.1713
4 78.75 0.00 119.25 0.00 92.25 0.00 105.75 0.00 4.50199 21.7182 20.6756
4 74.25 0.00 128.25 0.00 92.25 0.00 110.25 0.00 1.88873 23.3852 22.2011
4 87.75 0.00 114.75 0.00 96.75 0.00 105.75 0.00 11.4893 19.7191 18.7429
4 60.75 0.00 141.75 0.00 87.75 0.00 114.75 0.00 0.392122 21.411 19.2208
4 33.75 0.00 168.75 0.00 78.75 0.00 123.75 0.00 0.0761629 27.3793 29.3149
4 20.25 0.00 182.25 0.00 74.25 0.00 128.25 0.00 0.0563748 29.1845 26.2445
4 47.25 0.00 155.25 0.00 83.25 0.00 119.25 0.00 0.138225 26.5259 24.3667
4 83.25 0.00 123.75 0.00 96.75 0.00 110.25 0.00 4.49099 22.4257 21.2617
4 96.75 0.00 110.25 0.00 101.25 0.00 105.75 0.00 33.7251 14.8223 14.0854
4 78.75 0.00 132.75 0.00 96.75 0.00 114.75 0.00 1.94379 23.9339 22.9512
4 51.75 0.00 159.75 0.00 87.75 0.00 123.75 0.00 0.139911 26.9826 22.5689
4 65.25 0.00 146.25 0.00 92.25 0.00 119.25 0.00 0.383375 21.5981 21.718
4 92.25 0.00 119.25 0.00 101.25 0.00 110.25 0.00 12.3841 20.0422 19.0068
4 38.25 0.00 173.25 0.00 83.25 0.00 128.25 0.00 0.0781248 18.8339 10.7124
4 24.75 0.00 186.75 0.00 78.75 0.00 132.75 0.00 0.0563392 15.1698 15.8569
4 87.75 0.00 128.25 0.00 101.25 0.00 114.75 0.00 4.54985 22.5886 21.5069
4 101.25 0.00 114.75 0.00 105.75 0.00 110.25 0.00 38.4805 15.4783 14.6893
4 56.25 0.00 164.25 0.00 92.25 0.00 128.25 0.00 0.136231 17.7911 17.632
4 29.25 0.00 191.25 0.00 83.25 0.00 137.25 0.00 0.059321 23.0511 18.7846
4 69.75 0.00 150.75 0.00 96.75 0.00 123.75 0.00 0.387516 23.5147 21.8988
4 83.25 0.00 137.25 0.00 101.25 0.00 119.25 0.00 1.68217 24.5362 23.0339
4 96.75 0.00 123.75 0.00 105.75 0.00 114.75 0.00 12.9641 20.4456 19.409
4 42.75 0.00 177.75 0.00 87.75 0.00 132.75 0.00 0.0792966 5.8914 3.71314
4 92.25 0.00 132.75 0.00 105.75 0.00 119.25 0.00 4.5966 22.989 21.8395
4 105.75 0.00 119.25 0.00 110.25 0.00 114.75 0.00 36.9277 15.4457 14.672
4 47.25 0.00 182.25 0.00 92.25 0.00 137.25 0.00 0.0760141 3.3157 9.88775
4 60.75 0.00 168.75 0.00 96.75 0.00 132.75 0.00 0.137171 14.9834 16.2979
4 74.25 0.00 155.25 0.00 101.25 0.00 128.25 0.00 0.375364 21.1633 21.3503
4 101.25 0.00 128.25 0.00 110.25 0.00 119.25 0.00 12.3767 20.5735 19.5364
4 33.75 0.00 195.75 0.00 87.75 0.00 141.75 0.00 0.0573263 18.42 14.7643
4 87.75 0.00 141.75 0.00 105.75 0.00 123.75 0.00 1.81521 24.2513 23.2947
4 110.25 0.00 123.75 0.00 114.75 0.00 119.25 0.00 35.8996 15.2017 14.4251
4 96.75 0.00 137.25 0.00 110.25 0.00 123.75 0.00 4.33928 23.3627 22.1853
4 105.75 0.00 132.75 0.00 114.75 0.00 123.75 0.00 11.6847 20.6143 19.5461
4 65.25 0.00 173.25 0.00 101.25 0.00 137.25 0.00 0.132861 13.3058 15.4489
4 92.25 0.00 146.25 0.00 110.25 0.00 128.25 0.00 1.72034 26.0458 24.7743
4 51.75 0.00 186.75 0.00 96.75 0.00 141.75 0.00 0.0777911 9.82946 13.2665
4 78.75 0.00 159.75 0.00 105.75 0.00 132.75 0.00 0.384759 22.1792 22.4431
4 38.25 0.00 200.25 0.00 92.25 0.00 146.25 0.00 0.0555794 19.168 12.7875
4 114.75 0.00 128.25 0.00 119.25 0.00 123.75 0.00 36.4956 15.4588 14.7007
4 101.25 0.00 141.75 0.00 114.75 0.00 128.25 0.00 4.45016 24.0048 22.759
4 69.75 0.00 177.75 0.00 105.75 0.00 141.75 0.00 0.130596 14.2302 14.9481
4 83.25 0.00 164.25 0.00 110.25 0.00 137.25 0.00 0.348439 24.2745 22.0205
4 96.75 0.00 150.75 0.00 114.75 0.00 132.75 0.00 1.6991 25.4079 23.9187
4 110.25 0.00 137.25 0.00 119.25 0.00 128.25 0.00 12.1362 20.611 19.5137
4 56.25 0.00 191.25 0.00 101.25 0.00 146.25 0.00 0.07444 14.4849 19.1752
4 119.25 0.00 132.75 0.00 123.75 0.00 128.25 0.00 35.3143 15.6428 14.8456
4 105.75 0.00 146.25 0.00 119.25 0.00 132.75 0.00 4.34739 23.8724 22.7065
4 101.25 0.00 155.25 0.00 119.25 0.00 137.25 0.00 1.72406 24.2413 22.7779
4 60.75 0.00 195.75 0.00 105.75 0.00 150.75 0.00 0.0724066 24.9621 23.8466
4 87.75 0.00 168.75 0.00 114.75 0.00 141.75 0.00 0.338079 20.8013 19.7882
4 114.75 0.00 141.75 0.00 123.75 0.00 132.75 0.00 12.9739 21.498 20.4504
4 74.25 0.00 182.25 0.00 110.25 0.00 146.25 0.00 0.12437 23.6773 19.7022
4 110.25 0.00 150.75 0.00 123.75 0.00 137.25 0.00 4.6706 23.709 22.4933
4 123.75 0.00 137.25 0.00 128.25 0.00 132.75 0.00 34.7182 15.636 14.9347
4 92.25 0.00 173.25 0.00 119.25 0.00 146.25 0.00 0.346477 25.3247 24.2693
4 105.75 0.00 159.75 0.00 123.75 0.00 141.75 0.00 1.65399 24.144 23.0124
4 119.25 0.00 146.25 0.00 128.25 0.00 137.25 0.00 12.5755 20.8783 19.7713
4 65.25 0.00 200.25 0.00 110.25 0.00 155.25 0.00 0.0701597 13.4492 13.0276
4 78.75 0.00 186.75 0.00 114.75 0.00 150.75 0.00 0.118729 19.6325 16.5536
4 114.75 0.00 155.25 0.00 128.25 0.00 141.75 0.00 4.44878 23.5624 22.2814
4 128.25 0.00 141.75 0.00 132.75 0.00 137.25 0.00 37.3538 16.2987 15.4729
4 96.75 0.00 177.75 0.00 123.75 0.00 150.75 0.00 0.333248 23.8932 22.1234
4 83.25 0.00 191.25 0.00 119.25 0.00 155.25 0.00 0.115179 16.6454 14.9312
4 110.25 0.00 164.25 0.00 128.25 0.00 146.25 0.00 1.72176 25.152 23.6944
4 123.75 0.00 150.75 0.00 132.75 0.00 141.75 0.00 12.1059 21.2039 20.1039
4 119.25 0.00 159.75 0.00 132.75 0.00 146.25 0.00 4.4037 24.4426 23.1397
4 132.75 0.00 146.25 0.00 137.25 0.00 141.75 0.00 33.2475 15.8685 15.0596
4 87.75 0.00 195.75 0.00 123.75 0.00 159.75 0.00 0.110293 23.3388 20.5313
4 114.75 0.00 168.75 0.00 132.75 0.00 150.75 0.00 1.69146 25.9754 24.458
4 128.25 0.00 155.25 0.00 137.25 0.00 146.25 0.00 11.6385 21.647 20.5961
4 101.25 0.00 182.25 0.00 128.25 0.00 155.25 0.00 0.322434 21.9505 20.9686
4 137.25 0.00 150.75 0.00 141.75 0.00 146.25 0.00 39.3512 17.2324 16.3422
4 123.75 0.00 164.25 0.00 137.25 0.00 150.75 0.00 4.13604 24.6076 23.3961
4 132.75 0.00 159.75 0.00 141.75 0.00 150.75 0.00 12.3278 22.2742 21.157
4 119.25 0.00 173.25 0.00 137.25 0.00 155.25 0.00 1.63632 26.0549 24.5239
4 92.25 0.00 200.25 0.00 128.25 0.00 164.25 0.00 0.10877 15.6505 15.1625
4 105.75 0.00 186.75 0.00 132.75 0.00 159.75 0.00 0.304039 22.1648 20.9472
4 141.75 0.00 155.25 0.00 146.25 0.00 150.75 0.00 34.7184 16.7816 15.9052
4 128.25 0.00 168.75 0.00 141.75 0.00 155.25 0.00 4.34989 25.635 24.3771
4 110.25 0.00 191.25 0.00 137.25 0.00 164.25 0.00 0.300323 23.0484 22.7189
4 137.25 0.00 164.25 0.00 146.25 0.00 155.25 0.00 12.0816 21.8065 20.7418
4 123.75 0.00 177.75 0.00 141.75 0.00 159.75 0.00 1.6731 25.8164 24.8355
4 132.75 0.00 173.25 0.00 146.25 0.00 159.75 0.00 4.29043 25.0058 23.7114
4 146.25 0.00 159.75 0.00 150.75 0.00 155.25 0.00 38.1882 17.0296 16.1205
4 114.75 0.00 195.75 0.00 141.75 0.00 168.75 0.00 0.300036 24.0237 23.2731
4 141.75 0.00 168.75 0.00 150.75 0.00 159.75 0.00 11.8893 21.493 20.4295
4 128.25 0.00 182.25 0.00 146.25 0.00 164.25 0.00 1.4991 26.0026 24.7452
4 137.25 0.00 177.75 0.00 150.75 0.00 164.25 0.00 4.34293 24.5961 23.3387
4 150.75 0.00 164.25 0.00 155.25 0.00 159.75 0.00 35.9771 15.8656 15.0498
4 119.25 0.00 200.25 0.00 146.25 0.00 173.25 0.00 0.269434 25.9951 22.3996
4 132.75 0.00 186.75 0.00 150.75 0.00 168.75 0.00 1.47562 26.4961 25.0639
4 146.25 0.00 173.25 0.00 155.25 0.00 164.25 0.00 11.6542 21.6329 20.5274
4 155.25 0.00 168.75 0.00 159.75 0.00 164.25 0.00 36.4935 15.4963 14.7148
4 141.75 0.00 182.25 0.00 155.25 0.00 168.75 0.00 3.83217 25.3977 24.2354
4 137.25 0.00 191.25 0.00 155.25 0.00 173.25 0.00 1.40378 25.911 24.412
4 150.75 0.00 177.75 0.00 159.75 0.00 168.75 0.00 11.6662 21.6455 20.4641
4 146.25 0.00 186.75 0.00 159.75 0.00 173.25 0.00 3.73687 24.509 23.2972
4 159.75 0.00 173.25 0.00 164.25 0.00 168.75 0.00 36.7652 15.4047 14.6557
4 141.75 0.00 195.75 0.00 159.75 0.00 177.75 0.00 1.32497 25.7176 24.3438
4 155.25 0.00 182.25 0.00 164.25 0.00 173.25 0.00 10.6885 21.1764 20.0484
4 164.25 0.00 177.75 0.00 168.75 0.00 173.25 0.00 34.8014 15.3729 14.5725
4 150.75 0.00 191.25 0.00 164.25 0.00 177.75 0.00 3.59351 24.8529 23.5732
4 159.75 0.00 186.75 0.00 168.75 0.00 177.75 0.00 10.6357 21.7915 20.7021
4 146.25 0.00 200.25 0.00 164.25 0.00 182.25 0.00 1.29398 27.1119 25.7289
4 155.25 0.00 195.75 0.00 168.75 0.00 182.25 0.00 3.62689 25.9341 24.4772
4 168.75 0.00 182.25 0.00 173.25 0.00 177.75 0.00 35.5145 16.789 15.8947
4 164.25 0.00 191.25 0.00 173.25 0.00 182.25 0.00 11.2008 21.5334 20.4498
4 159.75 0.00 200.25 0.00 173.25 0.00 186.75 0.00 3.55833 24.8446 23.4375
4 173.25 0.00 186.75 0.00 177.75 0.00 182.25 0.00 36.4273 17.9519 17.0369
4 168.75 0.00 195.75 0.00 177.75 0.00 186.75 0.00 11.1389 21.8022 20.728
4 177.75 0.00 191.25 0.00 182.25 0.00 186.75 0.00 37.1864 17.7467 16.8544
4 173.25 0.00 200.25 0.00 182.25 0.00 191.25 0.00 10.1705 22.1688 21.0427
4 182.25 0.00 195.75 0.00 186.75 0.00 191.25 0.00 39.0391 18.4352 17.4812
4 186.75 0.00 200.25 0.00 191.25 0.00 195.75 0.00 39.2163 0.0180311 0.017083
0
0
0
0
0
0
0
0
